timestamps,TP9,AF7,AF8,TP10,Right AUX
1786901610.998,-165.039,-241.211,-572.266,115.234,0.000
1786901611.002,-402.832,-156.738,-461.914,370.117,0.000
1786901611.005,117.676,-20.020,-435.547,97.656,0.000
1786901611.009,443.359,-107.422,-483.398,-214.355,0.000
1786901611.013,-26.367,-192.383,-519.531,2.441,0.000
1786901611.017,-422.852,-187.500,-509.766,394.043,0.000
1786901611.021,-30.762,-162.598,-494.629,271.973,0.000
1786901611.025,463.379,-189.453,-580.078,-132.812,0.000
1786901611.029,155.273,-272.461,-618.164,-98.633,0.000
1786901611.033,-425.781,-78.125,-410.645,270.508,0.000
1786901611.037,-226.562,67.871,-344.727,323.730,0.000
1786901611.040,391.602,-117.188,-527.832,-27.832,0.000
1786901611.045,319.336,-295.898,-642.578,-158.691,0.000
1786901611.048,-302.734,-140.625,-480.469,147.461,0.000
1786901611.052,-345.215,20.996,-347.168,324.707,0.000
1786901611.056,267.578,-115.723,-437.988,29.297,0.000
1786901611.060,419.922,-202.637,-548.828,-259.766,0.000
1786901611.064,-160.645,-168.945,-484.863,-1.465,0.000
1786901611.068,-417.969,-119.141,-416.992,330.566,0.000
1786901611.072,104.004,-233.398,-566.406,146.973,0.000
1786901611.076,459.473,-187.988,-541.016,-216.797,0.000
1786901611.080,20.996,48.828,-291.992,-109.863,0.000
1786901611.083,-380.371,21.973,-312.500,309.082,0.000
1786901611.087,-21.484,-172.852,-402.344,297.852,0.000
1786901611.091,490.723,-165.039,-400.391,-119.629,0.000
1786901611.095,241.211,-4.395,-330.566,-179.199,0.000
1786901611.099,-310.059,-80.566,-339.355,257.324,0.000
1786901611.103,-188.965,-143.066,-354.004,377.441,0.000
1786901611.107,390.137,-63.477,-302.246,-20.996,0.000
1786901611.111,405.762,-118.164,-397.949,-196.777,0.000
1786901611.115,-185.059,-182.129,-429.688,170.898,0.000
1786901611.119,-300.781,-284.668,-459.473,463.379,0.000
1786901611.123,225.586,-113.770,-352.051,112.793,0.000
1786901611.126,452.148,84.961,-256.836,-221.191,0.000
1786901611.130,-46.875,-89.844,-377.930,78.125,0.000
1786901611.134,-365.723,-136.230,-412.598,434.570,0.000
1786901611.138,92.773,-26.367,-309.082,239.746,0.000
1786901611.142,522.461,-41.992,-331.055,-139.648,0.000
1786901611.146,148.926,-173.828,-435.059,-26.855,0.000
1786901611.150,-354.980,-136.230,-384.766,376.953,0.000
1786901611.154,-69.824,-46.875,-323.730,349.121,0.000
1786901611.158,493.164,-155.273,-436.523,-38.574,0.000
1786901611.162,320.312,-333.984,-572.266,-41.504,0.000
1786901611.166,-271.484,-291.016,-526.855,335.449,0.000
1786901611.169,-224.121,7.812,-288.574,412.598,0.000
1786901611.173,403.809,-14.648,-365.723,55.176,0.000
1786901611.177,471.680,-198.730,-477.051,-135.742,0.000
1786901611.181,-120.117,-154.785,-419.434,178.711,0.000
1786901611.185,-292.969,3.906,-286.133,437.012,0.000
1786901611.189,249.023,-27.832,-315.918,189.941,0.000
1786901611.193,541.992,-216.309,-467.773,-100.586,0.000
1786901611.197,34.668,-169.434,-383.301,80.566,0.000
1786901611.201,-341.797,-41.016,-317.383,431.641,0.000
1786901611.205,74.219,-127.930,-396.973,331.543,0.000
1786901611.208,537.598,-371.094,-562.500,-3.906,0.000
1786901611.212,156.738,-234.375,-483.887,11.230,0.000
1786901611.216,-376.465,26.367,-319.336,342.285,0.000
1786901611.220,-101.074,-144.043,-448.730,408.203,0.000
1786901611.224,450.684,-178.223,-510.742,7.324,0.000
1786901611.228,312.500,-79.102,-418.457,-154.297,0.000
1786901611.232,-270.020,-58.594,-345.215,225.586,0.000
1786901611.236,-253.906,-145.020,-434.082,451.172,0.000
1786901611.240,324.707,-171.387,-497.070,101.074,0.000
1786901611.244,415.527,-79.102,-403.809,-182.129,0.000
1786901611.248,-136.719,-104.980,-412.598,132.324,0.000
1786901611.251,-335.449,-306.152,-568.359,505.859,0.000
1786901611.255,147.949,-304.688,-609.863,261.230,0.000
1786901611.259,439.941,-39.551,-418.945,-176.270,0.000
1786901611.263,6.836,-67.871,-425.781,-10.254,0.000
1786901611.267,-390.137,-253.418,-517.578,421.875,0.000
1786901611.271,-48.828,-193.848,-497.559,315.918,0.000
1786901611.275,443.848,-82.520,-469.727,-121.094,0.000
1786901611.279,0.000,-214.355,-553.711,-90.332,0.000
1786901611.283,0.000,-191.406,-502.930,315.430,0.000
1786901611.287,0.000,-86.426,-429.199,384.766,0.000
1786901611.291,0.000,-62.012,-421.387,-8.301,0.000
1786901611.295,0.000,-145.020,-482.910,-155.762,0.000
1786901611.298,0.000,-238.281,-520.508,226.074,0.000
1786901611.302,0.000,-212.891,-511.719,432.617,0.000
1786901611.306,0.000,-88.867,-449.219,70.312,0.000
1786901611.310,0.000,-116.211,-496.094,-203.613,0.000
1786901611.314,0.000,-225.098,-546.875,78.125,0.000
1786901611.318,0.000,-74.219,-428.223,370.117,0.000
1786901611.322,0.000,18.066,-371.094,165.039,0.000
1786901611.326,421.875,-170.410,-546.387,-157.715,0.000
1786901611.330,4.395,-233.887,-591.797,-39.062,0.000
1786901611.334,-463.867,-70.801,-395.996,299.805,0.000
1786901611.338,-115.723,-126.465,-480.957,280.762,0.000
1786901611.341,425.781,-213.379,-550.293,-115.234,0.000
1786901611.345,207.031,-216.309,-526.367,-166.016,0.000
1786901611.349,-370.117,-120.605,-444.336,230.957,0.000
1786901611.353,-283.691,20.996,-321.777,328.125,0.000
1786901611.357,344.727,-228.516,-528.809,21.484,0.000
1786901611.361,348.145,-323.730,-625.488,-178.711,0.000
1786901611.365,-282.227,10.254,-345.215,64.453,0.000
1786901611.369,-365.234,-49.316,-367.676,342.285,0.000
1786901611.373,0.000,-122.070,0.000,46.387,0.000
1786901611.377,0.000,-74.707,0.000,-272.461,0.000
1786901611.381,0.000,-59.082,0.000,-32.715,0.000
1786901611.384,0.000,-102.051,0.000,327.637,0.000
1786901611.388,0.000,-188.965,0.000,176.758,0.000
1786901611.392,0.000,-209.961,0.000,-191.895,0.000
1786901611.396,0.000,-167.480,0.000,-102.539,0.000
1786901611.400,0.000,-174.316,0.000,311.035,0.000
1786901611.404,0.000,-183.105,0.000,313.477,0.000
1786901611.408,0.000,-72.754,0.000,-145.508,0.000
1786901611.412,0.000,-18.555,0.000,-247.070,0.000
1786901611.416,0.000,-170.898,0.000,220.215,0.000
1786901611.420,-272.949,-239.746,-139.648,433.594,0.000
1786901611.424,288.086,-34.180,96.191,19.531,0.000
1786901611.427,386.230,-40.039,123.047,-216.309,0.000
1786901611.431,-155.273,-163.574,79.102,147.461,0.000
1786901611.435,-329.102,-156.738,110.352,456.543,0.000
1786901611.439,186.035,-166.016,121.582,216.797,0.000
1786901611.443,470.215,-187.988,102.051,-90.820,0.000
1786901611.447,32.715,-311.523,-28.320,158.691,0.000
1786901611.451,-340.332,-368.652,-51.270,578.613,0.000
1786901611.455,16.113,-61.523,245.605,402.344,0.000
1786901611.459,501.465,-12.207,280.273,41.992,0.000
1786901611.462,198.242,-117.188,281.738,174.805,0.000
1786901611.467,-352.051,-86.426,336.914,607.422,0.000
1786901611.470,-153.320,-11.230,375.488,670.410,0.000
1786901611.474,435.059,-65.918,348.145,353.516,0.000
1786901611.478,341.309,-163.574,322.266,285.645,0.000
1786901611.482,-248.535,-92.773,401.855,690.918,0.000
1786901611.486,-239.746,-123.047,365.723,925.293,0.000
1786901611.490,335.938,-210.938,286.621,590.332,0.000
1786901611.494,444.824,-262.695,264.648,340.820,0.000
1786901611.498,-131.836,-119.629,359.375,591.309,0.000
1786901611.502,-354.980,0.977,409.180,887.207,0.000
1786901611.505,178.711,-166.992,321.289,683.105,0.000
1786901611.509,528.320,-314.941,275.391,333.496,0.000
1786901611.513,51.270,-153.320,379.395,459.961,0.000
1786901611.517,-398.438,1.953,465.820,840.332,0.000
1786901611.521,-14.160,-193.848,332.031,855.957,0.000
1786901611.525,507.324,-284.668,293.945,549.805,0.000
1786901611.529,233.887,-109.863,408.691,529.297,0.000
1786901611.533,-293.457,-147.461,396.484,871.582,0.000
1786901611.537,-127.441,-318.848,239.258,995.117,0.000
1786901611.541,427.246,-302.246,248.047,608.887,0.000
1786901611.545,375.000,-34.668,419.922,333.008,0.000
1786901611.548,-174.805,-51.270,417.969,723.633,0.000
1786901611.552,-253.418,-142.090,413.574,999.512,0.000
1786901611.556,291.504,-140.625,374.023,736.328,0.000
1786901611.560,0.000,-96.191,384.277,416.992,0.000
1786901611.564,0.000,-125.977,398.926,664.551,0.000
1786901611.568,0.000,-236.328,333.984,999.512,0.000
1786901611.572,0.000,-127.441,381.348,828.613,0.000
1786901611.576,0.000,-62.500,413.086,460.938,0.000
1786901611.580,0.000,-223.145,335.449,559.570,0.000
1786901611.584,0.000,-309.570,300.781,931.641,0.000
1786901611.587,0.000,-198.242,343.262,890.137,0.000
1786901611.591,0.000,-23.926,400.391,454.102,0.000
1786901611.595,0.000,-108.887,359.863,428.711,0.000
1786901611.599,0.000,-212.402,336.914,824.707,0.000
1786901611.603,0.000,-62.012,409.668,900.879,0.000
1786901611.607,415.527,-46.387,407.715,583.008,0.000
1786901611.611,475.098,-217.773,294.434,401.855,0.000
1786901611.615,-111.816,-201.172,328.613,685.059,0.000
1786901611.619,-263.184,-47.363,438.477,914.551,0.000
1786901611.623,285.156,-60.547,437.012,641.602,0.000
1786901611.627,561.035,-261.230,267.090,430.664,0.000
1786901611.630,40.527,-338.867,229.980,672.363,0.000
1786901611.634,-360.840,-114.258,391.602,916.016,0.000
1786901611.638,70.312,-21.973,425.293,722.656,0.000
1786901611.642,559.082,-226.074,279.297,380.371,0.000
1786901611.646,205.566,-204.102,307.129,416.992,0.000
1786901611.650,-318.359,1.465,451.660,758.301,0.000
1786901611.654,-46.387,-36.621,431.641,808.594,0.000
1786901611.658,509.766,-95.215,421.875,462.402,0.000
1786901611.662,354.980,-88.867,389.648,371.094,0.000
1786901611.666,-214.844,-36.133,427.734,692.383,0.000
1786901611.670,-174.316,-46.875,409.668,847.168,0.000
1786901611.673,425.781,-147.949,316.406,544.922,0.000
1786901611.677,517.090,-143.066,314.941,317.871,0.000
1786901611.681,-75.195,0.977,380.859,575.195,0.000
1786901611.685,-275.391,26.855,366.699,844.727,0.000
1786901611.689,250.977,-94.727,302.734,621.094,0.000
1786901611.693,543.945,49.316,346.680,219.238,0.000
1786901611.697,92.285,138.672,382.324,350.586,0.000
1786901611.701,0.000,3.418,306.641,730.469,0.000
1786901611.705,0.000,-4.395,290.527,615.723,0.000
1786901611.709,0.000,89.355,317.383,199.219,0.000
1786901611.713,0.000,48.828,311.523,197.754,0.000
1786901611.717,0.000,-55.664,240.234,563.965,0.000
1786901611.720,0.000,-134.766,167.969,603.516,0.000
1786901611.724,0.000,-23.438,240.723,187.988,0.000
1786901611.728,0.000,67.871,292.969,36.133,0.000
1786901611.732,0.000,-175.781,98.145,418.945,0.000
1786901611.736,0.000,-157.227,102.051,561.035,0.000
1786901611.740,0.000,82.520,277.344,189.453,0.000
1786901611.744,0.000,-62.988,167.480,-40.527,0.000
1786901611.748,-101.074,-168.457,114.258,214.355,0.000
1786901611.752,-387.695,-23.438,221.191,483.887,0.000
1786901611.756,100.098,80.078,270.020,279.297,0.000
1786901611.760,472.656,-20.996,168.945,-34.180,0.000
1786901611.763,53.223,-62.500,141.113,101.074,0.000
1786901611.767,-406.250,-68.359,144.531,458.496,0.000
1786901611.771,-100.586,-44.434,146.973,401.367,0.000
1786901611.775,429.199,-53.711,59.570,15.137,0.000
1786901611.779,203.125,-233.887,-176.270,4.883,0.000
1786901611.783,-398.438,-53.223,2.441,339.355,0.000
1786901611.787,-274.414,163.574,212.891,424.805,0.000
1786901611.791,333.008,-37.598,9.277,112.793,0.000
1786901611.795,317.383,-99.121,-112.305,-87.402,0.000
1786901611.799,-266.602,16.602,43.457,209.961,0.000
1786901611.803,-353.027,-10.254,52.246,457.031,0.000
1786901611.807,201.172,-133.789,-264.160,180.664,0.000
1786901611.811,395.020,-85.449,-239.746,-145.508,0.000
1786901611.814,-120.117,-28.320,-105.957,53.711,0.000
1786901611.818,-421.387,19.043,-133.789,382.812,0.000
1786901611.822,44.434,-78.613,-212.402,255.371,0.000
1786901611.826,439.941,-129.883,-387.207,-126.465,0.000
1786901611.830,34.668,91.309,-192.871,-126.465,0.000
1786901611.834,-434.082,67.383,-76.172,264.160,0.000
1786901611.838,-143.066,-134.277,-216.797,311.523,0.000
1786901611.842,377.930,-63.477,-269.531,-91.797,0.000
1786901611.846,211.426,79.590,-211.426,-201.172,0.000
1786901611.850,-316.406,-20.996,-259.277,201.660,0.000
1786901611.854,-259.277,-59.082,-311.523,350.586,0.000
1786901611.857,309.082,-30.762,-315.918,-3.906,0.000
1786901611.861,387.695,-88.867,-379.395,-191.406,0.000
1786901611.865,-176.758,-134.277,-416.504,127.441,0.000
1786901611.869,-354.492,-102.051,-348.145,395.996,0.000
1786901611.873,165.527,11.719,-299.316,114.258,0.000
1786901611.877,460.449,61.523,-283.203,-219.727,0.000
1786901611.881,-2.930,-100.586,-377.930,-3.418,0.000
1786901611.885,-395.020,-176.270,-402.344,338.379,0.000
1786901611.889,-14.160,27.832,0.000,178.223,0.000
1786901611.893,471.680,86.914,0.000,-179.199,0.000
1786901611.896,175.781,-147.461,0.000,-89.844,0.000
1786901611.900,-346.680,-193.848,0.000,288.086,0.000
1786901611.904,-160.156,40.039,0.000,279.297,0.000
1786901611.908,392.578,-42.480,0.000,-88.379,0.000
1786901611.912,299.805,-269.043,0.000,-166.992,0.000
1786901611.916,-283.203,-249.512,0.000,193.848,0.000
1786901611.920,-326.172,17.090,0.000,326.172,0.000
1786901611.924,263.184,73.242,0.000,6.348,0.000
1786901611.928,418.945,-188.477,0.000,-188.477,0.000
1786901611.931,-175.781,-170.410,0.000,79.102,0.000
1786901611.936,-413.086,39.551,-233.398,359.863,0.000
1786901611.939,141.602,-34.180,-317.871,135.742,0.000
1786901611.943,484.375,-131.348,-414.062,-218.262,0.000
1786901611.947,11.230,-79.590,-321.289,-41.016,0.000
1786901611.951,-373.047,-39.551,-272.461,350.098,0.000
1786901611.955,6.836,-115.234,-354.004,276.367,0.000
1786901611.959,500.488,-349.609,-542.480,-79.102,0.000
1786901611.963,195.312,-237.305,-455.078,-125.977,0.000
1786901611.967,-390.625,31.738,-236.816,215.332,0.000
1786901611.970,-206.543,-39.062,-270.508,330.078,0.000
1786901611.974,409.180,-163.086,-382.324,-54.199,0.000
1786901611.978,359.375,-129.395,-348.145,-249.512,0.000
1786901611.982,-256.348,-2.930,-185.547,91.797,0.000
1786901611.986,-305.664,-103.516,-272.949,337.891,0.000
1786901611.990,286.133,-159.180,-367.188,-12.695,0.000
1786901611.994,492.188,-41.504,-224.121,-326.172,0.000
1786901611.998,-53.223,-41.504,-209.961,-47.363,0.000
1786901612.002,-357.910,-256.348,-400.391,341.309,0.000
1786901612.006,104.004,-283.691,-432.617,133.301,0.000
1786901612.010,488.770,-21.973,-213.867,-318.359,0.000
1786901612.013,109.863,-20.996,-120.117,-176.270,0.000
1786901612.017,-338.867,-236.328,-260.742,283.691,0.000
1786901612.021,-36.133,-175.293,-218.750,223.145,0.000
1786901612.025,502.930,17.090,29.297,-230.957,0.000
1786901612.029,311.523,-73.730,-12.695,-225.586,0.000
1786901612.033,-269.043,-209.961,-181.152,216.309,0.000
1786901612.037,-191.406,-119.141,-109.863,302.734,0.000
1786901612.041,427.246,15.625,83.984,-109.863,0.000
1786901612.045,482.910,-105.469,-42.969,-281.250,0.000
1786901612.049,-102.539,-235.840,-229.004,113.770,0.000
1786901612.053,-259.277,-175.781,-273.926,386.230,0.000
1786901612.056,292.969,-95.215,-264.648,62.500,0.000
1786901612.060,559.570,-107.910,-298.828,-267.090,0.000
1786901612.064,32.227,-166.992,-317.871,-22.949,0.000
1786901612.068,-325.684,-42.480,-188.965,326.172,0.000
1786901612.072,138.672,27.832,-147.461,164.062,0.000
1786901612.076,0.000,-151.367,-346.191,-200.195,0.000
1786901612.080,0.000,-195.801,-372.559,-114.746,0.000
1786901612.084,0.000,-60.059,-213.379,275.879,0.000
1786901612.088,0.000,-41.504,-227.539,288.086,0.000
1786901612.092,0.000,-185.059,-349.609,-95.215,0.000
1786901612.096,0.000,-255.859,-376.465,-162.109,0.000
1786901612.100,0.000,-156.738,-315.918,228.516,0.000
1786901612.103,0.000,-28.809,-257.812,374.512,0.000
1786901612.107,0.000,-225.586,-434.570,61.523,0.000
1786901612.111,0.000,-338.867,-545.410,-168.945,0.000
1786901612.115,0.000,-6.836,-257.324,91.309,0.000
1786901612.119,0.000,-19.531,-258.301,419.434,0.000
1786901612.123,600.098,-130.371,-347.168,156.250,0.000
1786901612.127,213.867,-107.422,-309.082,-203.613,0.000
1786901612.131,-327.637,-44.922,-253.418,-4.883,0.000
1786901612.134,-62.012,-104.492,-303.711,393.555,0.000
1786901612.138,521.484,-193.848,-401.367,274.902,0.000
1786901612.142,356.445,-196.289,-426.758,-128.906,0.000
1786901612.146,-268.066,-187.500,-407.715,-85.938,0.000
1786901612.150,-231.445,-178.223,-384.277,333.008,0.000
1786901612.154,407.715,-195.801,-405.762,382.812,0.000
1786901612.158,472.656,-94.727,-359.375,-76.660,0.000
1786901612.162,-147.461,-32.715,-292.969,-219.727,0.000
1786901612.166,-319.824,-161.133,-395.020,223.145,0.000
1786901612.170,-297.363,-265.625,-472.656,444.336,0.000
1786901612.174,261.719,-87.402,-348.633,21.973,0.000
1786901612.177,420.410,-52.246,-370.605,-280.762,0.000
1786901612.181,-144.531,-195.312,-449.219,44.434,0.000
1786901612.185,-419.922,-166.504,-420.898,382.324,0.000
1786901612.189,82.520,-136.719,-410.156,140.625,0.000
1786901612.193,436.523,-188.477,-474.609,-229.980,0.000
1786901612.197,-17.090,-258.301,-505.859,-47.852,0.000
1786901612.201,-482.910,-165.039,-410.645,333.496,0.000
1786901612.205,-129.883,-19.531,-342.285,218.262,0.000
1786901612.209,427.734,-146.484,-470.703,-151.367,0.000
1786901612.212,166.992,-258.301,-520.020,-129.883,0.000
1786901612.217,0.000,-146.484,-420.410,251.953,0.000
1786901612.220,0.000,-15.137,-346.680,330.078,0.000
1786901612.224,0.000,-89.844,-437.012,-45.898,0.000
1786901612.228,0.000,-275.391,-534.668,-176.758,0.000
1786901612.232,0.000,-199.219,-460.449,164.551,0.000
1786901612.236,0.000,-106.934,-481.934,366.699,0.000
1786901612.240,0.000,-191.406,-542.969,54.199,0.000
1786901612.244,0.000,-235.840,-566.895,-243.164,0.000
1786901612.248,0.000,-82.031,-423.828,-9.277,0.000
1786901612.252,0.000,29.785,-341.309,317.871,0.000
1786901612.255,0.000,-131.348,-481.445,143.066,0.000
1786901612.259,0.000,-236.816,-571.777,-233.398,0.000
1786901612.263,-15.137,-101.074,-463.379,-151.367,0.000
1786901612.267,-500.977,-126.465,-472.168,284.668,0.000
1786901612.271,-212.891,-208.984,-545.898,257.324,0.000
1786901612.275,328.613,-128.906,-504.883,-198.242,0.000
1786901612.279,150.879,-93.750,-462.402,-270.508,0.000
1786901612.283,-418.945,-152.344,-486.816,152.832,0.000
1786901612.287,-318.848,-285.645,-572.754,345.703,0.000
1786901612.291,265.625,-273.438,-600.586,-55.664,0.000
1786901612.295,275.391,1.465,-407.227,-349.609,0.000
1786901612.298,-282.715,-20.020,-399.414,17.578,0.000
1786901612.302,-419.434,-95.215,-387.695,322.754,0.000
1786901612.306,136.719,-57.617,-351.562,23.438,0.000
1786901612.310,406.738,-67.871,0.000,-321.289,0.000
1786901612.314,-101.562,-138.672,0.000,-72.266,0.000
1786901612.318,-466.797,-157.715,0.000,325.195,0.000
1786901612.322,-44.922,-85.938,0.000,166.504,0.000
1786901612.326,434.082,-150.391,0.000,-222.656,0.000
1786901612.330,82.520,-220.703,0.000,-170.898,0.000
1786901612.334,-465.332,-260.254,0.000,239.258,0.000
1786901612.338,-236.328,-134.766,0.000,233.398,0.000
1786901612.342,357.422,42.480,0.000,-197.266,0.000
1786901612.345,259.766,-114.746,0.000,-250.977,0.000
1786901612.349,-352.051,-240.234,0.000,143.555,0.000
1786901612.353,-385.742,-45.898,0.000,267.578,0.000
1786901612.357,223.633,14.648,-317.871,-92.773,0.000
1786901612.361,360.352,-202.148,-537.109,-295.410,0.000
1786901612.365,-233.887,-212.891,-539.062,-1.465,0.000
1786901612.369,-462.891,-21.973,-324.219,259.277,0.000
1786901612.373,99.609,-81.055,-418.945,24.902,0.000
1786901612.377,418.945,-256.836,-569.336,-276.367,0.000
1786901612.381,-73.730,-268.066,-571.777,-92.285,0.000
1786901612.385,-466.797,-96.191,-422.852,240.723,0.000
1786901612.389,-88.867,-8.301,-347.656,136.719,0.000
1786901612.392,426.758,-266.113,-565.430,-196.777,0.000
1786901612.396,122.559,-287.109,-569.336,-200.195,0.000
1786901612.400,-440.918,-22.949,-328.613,140.625,0.000
1786901612.404,-236.328,-32.227,-368.164,248.535,0.000
1786901612.408,347.168,-278.320,-579.102,-81.055,0.000
1786901612.412,248.047,-225.586,-516.602,-254.395,0.000
1786901612.416,-331.543,1.953,-344.727,71.777,0.000
1786901612.420,-348.145,-89.355,-402.832,314.453,0.000
1786901612.424,213.867,-217.285,-495.605,11.230,0.000
1786901612.428,363.281,-215.332,-512.207,-264.160,0.000
1786901612.432,-164.551,-159.180,-470.703,-14.648,0.000
1786901612.435,-427.246,-158.691,-501.953,285.645,0.000
1786901612.439,28.809,-298.340,-582.031,105.469,0.000
1786901612.443,351.562,-172.852,-484.375,-281.738,0.000
1786901612.447,-47.852,21.484,-377.930,-189.941,0.000
1786901612.451,0.000,-115.234,-450.684,230.469,0.000
1786901612.455,0.000,-118.164,-468.750,191.895,0.000
1786901612.459,0.000,-32.715,-376.465,-211.426,0.000
1786901612.463,0.000,-83.984,-388.184,-247.070,0.000
1786901612.467,0.000,-196.289,-470.703,168.457,0.000
1786901612.471,0.000,-248.047,-530.273,298.828,0.000
1786901612.475,0.000,-149.902,-479.492,-92.285,0.000
1786901612.479,0.000,-62.500,-420.898,-290.527,0.000
1786901612.482,0.000,-269.043,-568.359,83.984,0.000
1786901612.486,0.000,-278.809,-599.609,320.801,0.000
1786901612.490,0.000,-4.395,-398.926,-3.418,0.000
1786901612.494,0.000,-85.938,-497.559,-255.859,0.000
1786901612.498,-129.883,-296.387,-612.793,9.766,0.000
1786901612.502,-468.262,-186.035,-516.602,307.129,0.000
1786901612.506,-45.898,2.930,-437.012,101.562,0.000
1786901612.510,397.461,-109.863,-547.852,-234.863,0.000
1786901612.514,27.832,-196.777,-593.750,-134.277,0.000
1786901612.518,-466.797,-169.922,-529.297,230.957,0.000
1786901612.522,-199.219,-123.047,-509.277,222.168,0.000
1786901612.525,349.609,-135.254,-574.219,-128.418,0.000
1786901612.529,178.223,-280.273,-611.328,-179.199,0.000
1786901612.533,-430.664,-119.629,-468.262,134.766,0.000
1786901612.537,-355.957,83.008,-371.582,252.930,0.000
1786901612.541,244.141,-89.355,-495.605,-44.922,0.000
1786901612.545,298.340,-154.297,-549.805,-251.465,0.000
1786901612.549,-256.836,-69.336,-422.852,21.973,0.000
1786901612.553,-409.668,-75.684,-401.855,297.852,0.000
1786901612.557,110.840,-187.012,-518.066,84.473,0.000
1786901612.561,379.883,-187.988,-552.246,-207.031,0.000
1786901612.565,-77.148,-154.297,-490.234,-21.484,0.000
1786901612.569,-430.664,-142.090,-462.402,309.570,0.000
1786901612.572,-29.297,-267.578,-609.375,223.633,0.000
1786901612.576,407.227,-262.207,-647.461,-153.809,0.000
1786901612.580,89.844,-17.578,-415.527,-163.574,0.000
1786901612.584,-391.113,-20.996,-372.559,230.469,0.000
1786901612.588,-175.293,-196.289,-483.887,301.758,0.000
1786901612.592,353.027,-173.828,-465.820,-90.332,0.000
1786901612.596,230.957,-35.156,-385.254,-239.746,0.000
1786901612.600,-330.566,-104.492,-421.387,118.652,0.000
1786901612.604,-338.867,-150.879,-463.379,302.734,0.000
1786901612.608,223.633,-132.812,-473.633,-20.996,0.000
1786901612.612,355.957,-197.266,-542.480,-249.512,0.000
1786901612.616,-210.449,-208.008,-536.133,24.902,0.000
1786901612.619,-468.262,-312.012,-577.637,347.168,0.000
1786901612.623,-10.254,-205.078,-536.133,95.703,0.000
1786901612.627,324.707,28.320,-419.922,-291.016,0.000
1786901612.631,-65.918,-120.117,-511.230,-95.703,0.000
1786901612.635,-474.609,-181.641,-553.711,271.973,0.000
1786901612.639,-154.297,-44.434,-413.086,0.000,0.000
1786901612.643,344.238,-58.594,-440.918,0.000,0.000
1786901612.647,94.238,-226.562,-612.305,0.000,0.000
1786901612.651,-461.426,-174.805,-528.320,0.000,0.000
1786901612.655,-306.152,-36.621,-393.066,0.000,0.000
1786901612.659,296.875,-175.293,-529.785,0.000,0.000
1786901612.662,256.836,-227.539,-517.578,0.000,0.000
1786901612.666,-331.055,-106.934,-399.902,0.000,0.000
1786901612.670,-382.812,-48.828,-395.996,0.000,0.000
1786901612.674,187.988,-114.258,-464.355,0.000,0.000
1786901612.678,385.742,-357.910,-697.754,0.000,0.000
1786901612.682,-166.016,-324.707,-663.574,0.000,0.000
1786901612.686,-469.238,22.949,-379.883,282.715,0.000
1786901612.690,34.180,-38.574,-464.355,150.879,0.000
1786901612.694,418.945,-163.574,-548.828,-174.316,0.000
1786901612.698,6.348,-104.980,-456.543,-95.215,0.000
1786901612.701,-448.242,-54.688,-418.945,267.090,0.000
1786901612.705,-127.441,-99.609,-457.031,267.090,0.000
1786901612.709,417.480,-384.277,-686.035,-41.504,0.000
1786901612.713,180.176,-328.125,-685.059,-140.625,0.000
1786901612.717,-385.742,40.527,-395.996,138.184,0.000
1786901612.721,-253.418,-40.039,-431.152,317.871,0.000
1786901612.725,324.219,-126.953,-512.207,6.348,0.000
1786901612.729,334.473,-86.914,-469.727,-201.172,0.000
1786901612.733,-241.211,-143.555,-469.238,116.211,0.000
1786901612.737,-375.488,-175.781,-515.625,381.836,0.000
1786901612.741,159.180,-111.328,-520.508,100.586,0.000
1786901612.744,403.809,-79.590,-467.285,-217.773,0.000
1786901612.748,-75.195,-89.355,-422.363,-3.906,0.000
1786901612.752,-388.672,-233.887,-554.199,390.625,0.000
1786901612.756,7.324,-247.070,-631.348,236.816,0.000
1786901612.760,407.227,-22.949,-440.918,-207.031,0.000
1786901612.764,86.914,-18.555,-409.668,-128.418,0.000
1786901612.768,-385.254,-217.285,-522.949,312.500,0.000
1786901612.772,-174.316,-192.871,-532.227,308.594,0.000
1786901612.775,351.562,-17.578,-448.242,-123.535,0.000
1786901612.780,0.000,-92.285,-489.258,-185.059,0.000
1786901612.784,0.000,-123.047,-477.539,180.176,0.000
1786901612.787,0.000,-99.609,-463.867,331.543,0.000
1786901612.791,0.000,-108.398,-470.703,-2.441,0.000
1786901612.795,0.000,-129.883,-499.023,-239.746,0.000
1786901612.799,0.000,-190.918,-545.898,58.594,0.000
1786901612.803,0.000,-145.020,-477.051,330.566,0.000
1786901612.807,0.000,-73.242,-487.793,91.309,0.000
1786901612.811,0.000,-100.586,-524.414,-223.145,0.000
1786901612.815,0.000,-188.477,-554.688,-28.809,0.000
1786901612.819,0.000,-50.293,-430.664,298.828,0.000
1786901612.822,0.000,17.090,-396.484,168.457,0.000
1786901612.827,408.203,-158.691,-576.660,-182.617,0.000
1786901612.830,119.629,-211.914,-620.117,-155.762,0.000
1786901612.834,-417.480,-58.594,-438.477,196.289,0.000
1786901612.838,-214.844,-26.367,-415.527,254.883,0.000
1786901612.842,358.398,-172.363,-549.316,-76.660,0.000
1786901612.846,249.023,-252.930,-609.375,-176.270,0.000
1786901612.850,-355.957,-157.715,-511.230,149.902,0.000
1786901612.854,-397.461,-60.059,-458.496,332.031,0.000
1786901612.858,181.641,-253.906,-652.344,64.941,0.000
1786901612.862,316.406,-327.148,-715.332,-209.473,0.000
1786901612.865,-246.094,15.625,-415.039,-38.086,0.000
1786901612.869,-454.102,8.789,-412.598,287.598,0.000
1786901612.873,0.000,-108.887,-502.441,105.469,0.000
1786901612.877,0.000,-77.148,-463.379,-243.652,0.000
1786901612.881,0.000,-62.500,-439.453,-102.539,0.000
1786901612.885,0.000,-102.051,-459.473,279.297,0.000
1786901612.889,0.000,-144.531,-521.973,222.656,0.000
1786901612.893,0.000,-158.691,-535.645,-161.133,0.000
1786901612.897,0.000,-167.969,-524.902,-182.129,0.000
1786901612.901,0.000,-138.184,-481.445,191.406,0.000
1786901612.905,0.000,-208.008,-541.504,312.500,0.000
1786901612.908,0.000,-128.906,-521.484,-60.547,0.000
1786901612.912,0.000,26.367,-410.645,-255.859,0.000
1786901612.916,0.000,-128.418,-512.207,113.770,0.000
1786901612.920,-383.301,-197.266,-540.527,350.586,0.000
1786901612.924,139.160,-55.176,-425.293,22.461,0.000
1786901612.928,357.910,-34.668,-414.551,-279.297,0.000
1786901612.932,-138.184,-205.078,-560.547,-10.254,0.000
1786901612.936,-464.355,-234.375,-600.098,339.355,0.000
1786901612.940,-44.434,-135.254,-488.281,154.297,0.000
1786901612.944,353.027,-109.375,-488.281,-225.098,0.000
1786901612.948,5.859,-238.770,-580.078,-105.469,0.000
1786901612.951,-449.707,-311.523,-627.930,283.691,0.000
1786901612.955,-207.031,19.043,-378.906,181.641,0.000
1786901612.959,344.727,8.301,-421.387,-201.172,0.000
1786901612.963,174.805,-184.082,-513.184,-248.535,0.000
1786901612.967,-393.555,-158.203,-469.238,92.285,0.000
1786901612.971,-328.125,-6.348,-368.164,203.125,0.000
1786901612.975,266.602,-57.617,-419.922,-123.535,0.000
1786901612.979,323.242,-181.641,-521.973,-322.754,0.000
1786901612.983,-247.559,-117.188,-423.828,-43.457,0.000
1786901612.987,-385.254,-116.699,-443.848,212.891,0.000
1786901612.991,144.043,-175.781,-479.004,-22.461,0.000
1786901612.994,402.832,-192.871,-477.539,-327.637,0.000
1786901612.998,-83.984,-95.215,-395.996,-169.922,0.000
1786901613.002,-432.129,23.438,-279.297,161.621,0.000
1786901613.006,-14.648,-91.797,-371.094,85.449,0.000
1786901613.010,424.805,-197.266,-456.055,-255.371,0.000
1786901613.014,91.797,-63.477,-336.914,-240.723,0.000
1786901613.018,-390.625,-16.602,-265.137,145.508,0.000
1786901613.022,-155.273,-131.348,-376.465,220.703,0.000
1786901613.026,391.602,-123.047,-413.086,-135.254,0.000
1786901613.030,275.879,-70.312,-354.004,-258.301,0.000
1786901613.034,-286.133,-125.977,-353.516,111.328,0.000
1786901613.037,-255.859,-247.070,-475.586,346.191,0.000
1786901613.041,295.410,-277.832,-572.266,18.555,0.000
1786901613.045,352.539,-15.137,-350.586,-295.898,0.000
1786901613.049,-171.875,-17.578,-332.031,10.742,0.000
1786901613.053,-371.094,-168.457,-431.152,339.355,0.000
1786901613.057,104.004,-141.602,-445.312,102.539,0.000
1786901613.061,419.434,-42.480,-376.953,-240.234,0.000
1786901613.065,0.000,-123.047,-455.078,-55.176,0.000
1786901613.069,-393.066,-179.199,-479.492,325.195,0.000
1786901613.073,-46.875,-73.242,-368.652,231.445,0.000
1786901613.076,451.660,-73.730,-406.738,-139.160,0.000
1786901613.080,210.449,-216.309,-502.930,-92.773,0.000
1786901613.084,-338.379,-272.461,-499.512,301.758,0.000
1786901613.088,-190.918,-193.848,-483.398,346.191,0.000
1786901613.092,373.047,-43.945,-398.438,-35.645,0.000
1786901613.096,334.473,-111.816,-456.055,-168.457,0.000
1786901613.100,-240.234,-232.422,-528.320,170.898,0.000
1786901613.104,-320.312,-61.035,-372.070,363.770,0.000
1786901613.108,251.953,2.441,-329.590,86.426,0.000
1786901613.112,435.059,-145.508,-454.102,-149.902,0.000
1786901613.116,-97.168,-189.941,-474.609,108.887,0.000
1786901613.119,-364.258,-100.586,-372.070,395.020,0.000
1786901613.123,107.910,-70.801,-361.328,190.430,0.000
1786901613.127,492.676,-313.477,-591.797,-89.844,0.000
1786901613.131,69.336,-387.695,-662.109,32.715,0.000
1786901613.135,-414.551,-57.129,-385.742,318.359,0.000
1786901613.139,-83.984,-114.746,-469.727,301.270,0.000
1786901613.143,433.105,-246.582,-540.527,-56.152,0.000
1786901613.147,197.266,-116.699,-404.785,-120.117,0.000
1786901613.151,-348.145,-40.039,-346.680,247.559,0.000
1786901613.155,-222.656,-109.863,-408.691,375.488,0.000
1786901613.159,341.309,-172.852,-492.188,23.926,0.000
1786901613.162,316.406,-135.742,-450.684,-182.617,0.000
1786901613.166,-251.465,-73.730,-403.809,131.836,0.000
1786901613.170,-351.562,-100.098,-407.227,389.648,0.000
1786901613.174,189.941,-230.469,-512.207,140.625,0.000
1786901613.178,407.715,-243.652,-545.410,-163.574,0.000
1786901613.182,-104.492,-140.625,-457.520,14.648,0.000
1786901613.186,-421.875,-106.934,-426.270,347.168,0.000
1786901613.190,11.719,-248.535,-566.895,226.074,0.000
1786901613.194,408.691,-136.230,-508.789,-179.199,0.000
1786901613.197,69.824,-83.496,-490.723,-101.074,0.000
1786901613.202,-401.855,-203.613,-565.430,291.992,0.000
1786901613.206,-173.828,-118.164,-505.859,270.996,0.000
1786901613.209,346.191,-32.715,-421.387,-114.746,0.000
1786901613.213,198.242,-97.168,-444.336,-196.777,0.000
1786901613.217,-353.516,-192.871,-493.164,190.430,0.000
1786901613.221,-310.547,-223.633,-508.301,358.398,0.000
1786901613.225,228.027,-110.352,-430.176,-18.066,0.000
1786901613.229,300.293,-37.109,-399.414,-263.672,0.000
1786901613.233,-227.051,-277.832,-574.707,86.914,0.000
1786901613.237,-432.129,-235.840,-529.297,352.051,0.000
1786901613.240,62.988,32.715,-325.684,52.734,0.000
1786901613.244,392.090,-85.449,-449.219,-236.816,0.000
1786901613.249,-49.316,-269.043,-526.855,-10.254,0.000
1786901613.252,-444.336,-169.922,-440.918,332.031,0.000
1786901613.256,-65.918,-35.645,-404.297,200.684,0.000
1786901613.260,403.809,-73.242,-431.152,-171.875,0.000
1786901613.264,100.098,-153.320,-503.906,-121.582,0.000
1786901613.268,-399.414,-200.684,-498.047,280.273,0.000
1786901613.272,-196.289,-152.832,-438.965,300.293,0.000
1786901613.276,346.680,-141.602,-469.238,-82.520,0.000
1786901613.280,254.395,-302.734,-549.316,-175.781,0.000
1786901613.283,-330.566,-144.531,-400.879,126.465,0.000
1786901613.287,-333.496,37.598,-321.777,284.180,0.000
1786901613.291,249.512,-140.625,-460.449,0.977,0.000
1786901613.295,382.324,-172.852,-476.562,-250.977,0.000
1786901613.299,-158.691,-71.777,-360.840,10.254,0.000
1786901613.303,-386.230,-30.762,-281.738,316.406,0.000
1786901613.307,112.793,-190.430,-482.910,132.324,0.000
1786901613.311,420.898,-259.766,-601.074,-182.129,0.000
1786901613.315,-17.578,-155.273,-445.801,-49.316,0.000
1786901613.319,-416.504,-136.719,-402.832,297.363,0.000
1786901613.323,-80.078,-236.816,-508.301,259.277,0.000
1786901613.326,403.809,-237.793,-579.102,-130.371,0.000
1786901613.330,138.672,-41.016,-388.672,-199.219,0.000
1786901613.334,-374.023,-54.688,-352.051,190.430,0.000
1786901613.338,-229.980,-206.543,-436.523,331.055,0.000
1786901613.342,0.000,-147.461,-416.992,-49.805,0.000
1786901613.346,0.000,-12.207,-339.355,-250.488,0.000
1786901613.350,0.000,-127.930,-413.086,106.934,0.000
1786901613.354,0.000,-145.020,-409.668,325.684,0.000
1786901613.358,0.000,-96.680,-386.230,26.367,0.000
1786901613.362,0.000,-182.617,-477.051,-231.445,0.000
1786901613.366,0.000,-184.570,-437.012,12.207,0.000
1786901613.369,0.000,-304.199,-522.461,381.836,0.000
1786901613.373,0.000,-174.805,-437.500,164.062,0.000
1786901613.377,0.000,63.965,-296.875,-241.699,0.000
1786901613.381,0.000,-104.980,-416.992,-82.031,0.000
1786901613.385,0.000,-148.438,-407.715,296.875,0.000
1786901613.389,312.012,-35.156,-300.293,247.559,0.000
1786901613.393,296.387,-27.344,-314.941,-117.188,0.000
1786901613.397,-246.582,-150.391,-438.477,-150.879,0.000
1786901613.401,-354.492,-150.879,-414.551,204.102,0.000
1786901613.404,178.223,-62.988,-310.547,314.453,0.000
1786901613.408,395.996,-168.945,-421.875,-5.859,0.000
1786901613.412,-112.305,-305.664,-541.016,-175.293,0.000
1786901613.416,-378.418,-210.938,-493.164,105.469,0.000
1786901613.420,29.785,-40.527,-344.238,322.266,0.000
1786901613.424,390.625,-21.973,-297.852,65.430,0.000
1786901613.428,41.992,-291.992,-542.480,-161.621,0.000
1786901613.432,-431.152,-345.703,-594.238,35.645,0.000
1786901613.436,-514.648,-20.020,-300.293,288.574,0.000
1786901613.440,-73.242,-35.645,-339.355,173.828,0.000
1786901613.443,354.980,-144.043,-439.941,-173.340,0.000
1786901613.447,19.043,-121.582,-385.254,-110.840,0.000
1786901613.451,-453.613,-73.242,-332.520,271.973,0.000
1786901613.455,-202.148,-128.418,-395.508,295.410,0.000
1786901613.459,334.961,-325.684,-561.523,-46.387,0.000
1786901613.463,164.062,-236.328,-514.160,-175.293,0.000
1786901613.467,-409.668,15.625,-317.871,124.023,0.000
1786901613.471,-351.562,-56.641,-373.535,320.801,0.000
1786901613.475,224.609,-141.602,-475.586,18.555,0.000
1786901613.478,305.664,-113.281,-453.613,-231.934,0.000
1786901613.483,-233.887,-74.219,-357.422,26.855,0.000
1786901613.487,-403.809,-158.203,-429.688,342.773,0.000
1786901613.490,83.008,-175.293,-517.578,116.699,0.000
1786901613.494,384.766,-70.312,-413.086,-243.652,0.000
1786901613.498,-39.062,-89.355,-402.344,-69.824,0.000
1786901613.502,-413.086,-299.805,-593.750,354.980,0.000
1786901613.506,-71.289,-270.020,-603.027,259.277,0.000
1786901613.510,380.859,-12.695,-398.926,-183.594,0.000
1786901613.514,124.512,-42.969,-399.902,-154.785,0.000
1786901613.518,-371.582,-237.305,-518.555,282.715,0.000
1786901613.522,-211.426,-202.637,-514.160,344.238,0.000
1786901613.525,326.660,-16.602,-365.723,-65.918,0.000
1786901613.530,287.598,-105.957,0.000,-181.641,0.000
1786901613.533,-280.273,-165.039,0.000,157.227,0.000
1786901613.537,-329.590,-75.195,0.000,345.215,0.000
1786901613.541,232.422,-41.504,0.000,43.457,0.000
1786901613.545,384.277,-140.137,0.000,-207.520,0.000
1786901613.549,-145.508,-229.004,0.000,60.059,0.000
1786901613.553,-414.551,-181.152,0.000,346.680,0.000
1786901613.557,46.387,-135.742,0.000,139.648,0.000
1786901613.561,418.945,-166.504,0.000,-185.059,0.000
1786901613.565,8.301,-200.195,0.000,-64.941,0.000
1786901613.568,-446.777,-55.664,0.000,252.930,0.000
1786901613.572,-110.840,50.781,0.000,191.406,0.000
1786901613.577,413.086,-120.117,-502.930,-142.578,0.000
1786901613.580,174.316,-243.652,-590.820,-159.668,0.000
1786901613.584,-398.438,-63.477,-420.410,164.062,0.000
1786901613.588,-273.438,21.973,-364.258,281.738,0.000
1786901613.592,318.848,-104.004,-469.238,-26.367,0.000
1786901613.596,312.500,-229.980,-587.891,-197.754,0.000
1786901613.600,-280.273,-124.023,-460.449,82.031,0.000
1786901613.604,-374.512,-34.668,-391.113,307.617,0.000
1786901613.608,202.148,-259.766,-611.816,100.098,0.000
1786901613.612,386.719,-281.250,-635.742,-189.941,0.000
1786901613.615,-139.648,19.043,-350.586,-39.551,0.000
1786901613.619,-411.621,-20.996,-373.535,307.617,0.000
1786901613.623,19.043,-136.230,-470.703,159.668,0.000
1786901613.627,413.086,-78.613,-414.062,-205.078,0.000
1786901613.631,60.547,-56.641,-368.652,-111.816,0.000
1786901613.635,-408.691,-115.234,-387.695,293.945,0.000
1786901613.639,-118.164,-175.293,-473.145,259.277,0.000
1786901613.643,410.156,-165.039,-480.469,-148.926,0.000
1786901613.647,206.055,-166.016,-472.168,-183.594,0.000
1786901613.651,-344.238,-199.219,-491.211,168.945,0.000
1786901613.655,-288.086,-189.941,-470.215,320.312,0.000
1786901613.658,265.625,-77.637,-411.621,-38.086,0.000
1786901613.662,341.797,-92.285,-449.219,-252.441,0.000
1786901613.666,-214.355,-218.262,-547.363,72.266,0.000
1786901613.670,-408.691,-171.387,-464.355,329.102,0.000
1786901613.674,96.191,-24.902,-356.445,35.645,0.000
1786901613.678,395.508,-45.898,-404.297,-257.324,0.000
1786901613.682,-64.941,-150.879,-428.711,-36.621,0.000
1786901613.686,-427.246,-149.414,-444.824,302.734,0.000
1786901613.690,-31.250,-142.578,-446.777,201.172,0.000
1786901613.694,418.945,-172.363,-477.051,-158.691,0.000
1786901613.698,120.117,-308.105,-613.770,-95.215,0.000
1786901613.701,-413.574,-302.246,-582.031,274.414,0.000
1786901613.705,-233.398,14.160,-320.312,234.863,0.000
1786901613.709,355.957,-21.484,-394.043,-109.863,0.000
1786901613.713,257.812,-168.457,-500.000,-192.871,0.000
1786901613.717,0.000,-120.117,-409.180,146.484,0.000
1786901613.721,0.000,-92.773,-354.980,326.660,0.000
1786901613.725,0.000,-128.906,-411.133,-2.441,0.000
1786901613.729,0.000,-139.648,-476.562,-255.859,0.000
1786901613.733,0.000,-122.559,-421.875,19.531,0.000
1786901613.737,0.000,-156.250,-410.156,327.148,0.000
1786901613.740,0.000,-168.457,-446.777,125.977,0.000
1786901613.744,0.000,-224.609,-534.668,-192.383,0.000
1786901613.748,0.000,-104.980,-432.617,-83.984,0.000
1786901613.752,0.000,21.484,-308.594,267.578,0.000
1786901613.756,0.000,-105.957,-420.898,238.281,0.000
1786901613.760,0.000,-207.031,-526.855,-139.160,0.000
1786901613.764,52.734,-81.543,-403.320,-181.641,0.000
1786901613.768,-475.098,-23.438,-336.914,195.801,0.000
1786901613.772,-299.316,-154.297,-473.633,306.152,0.000
1786901613.776,267.090,-218.750,-575.684,-44.922,0.000
1786901613.780,205.078,-166.992,-496.582,-221.191,0.000
1786901613.783,-355.957,-143.555,-437.988,129.883,0.000
1786901613.787,-397.461,-243.652,-548.828,385.254,0.000
1786901613.791,139.160,-250.977,-605.469,75.195,0.000
1786901613.795,286.133,-16.113,-399.902,-260.254,0.000
1786901613.799,-195.312,-29.297,-374.512,-6.836,0.000
1786901613.803,-448.242,-122.559,-404.297,334.961,0.000
1786901613.807,-6.836,-78.613,-389.160,146.973,0.000
1786901613.811,371.582,-10.742,-359.863,-220.703,0.000
1786901613.815,-9.277,-93.750,-414.551,-122.559,0.000
1786901613.819,-458.984,-161.133,-450.195,248.047,0.000
1786901613.823,-155.273,-86.426,-412.598,196.289,0.000
1786901613.827,348.145,-119.141,-522.949,-182.617,0.000
1786901613.830,134.766,-240.723,-643.066,-206.055,0.000
1786901613.834,-403.809,-280.273,-638.184,179.688,0.000
1786901613.838,-338.379,-174.316,-580.566,286.621,0.000
1786901613.842,227.051,-40.039,-512.207,-92.285,0.000
1786901613.846,266.113,-89.355,-554.688,-283.203,0.000
1786901613.850,-298.340,-224.121,-612.305,40.039,0.000
1786901613.854,-458.496,-43.945,-422.363,272.949,0.000
1786901613.858,81.055,45.410,-366.699,21.973,0.000
1786901613.862,351.074,-137.207,-503.906,-245.605,0.000
1786901613.866,-131.348,-158.691,-507.812,-21.484,0.000
1786901613.869,-460.449,-37.598,-356.445,303.711,0.000
1786901613.873,-32.715,-56.152,-367.676,170.898,0.000
1786901613.877,404.785,-245.605,-545.898,-137.207,0.000
1786901613.881,42.969,-234.375,-531.250,-89.355,0.000
1786901613.885,-444.824,-41.504,-360.840,241.211,0.000
1786901613.889,-175.293,-21.484,-349.121,270.508,0.000
1786901613.893,393.555,-273.926,-571.289,-36.133,0.000
1786901613.897,239.746,-344.727,-669.922,-119.629,0.000
1786901613.901,-361.328,-80.566,-452.148,164.551,0.000
1786901613.905,-310.059,-31.250,-395.508,330.078,0.000
1786901613.909,272.461,-230.469,-533.691,41.504,0.000
1786901613.913,324.707,-181.152,-480.469,-208.008,0.000
1786901613.916,-211.914,-22.949,-396.484,43.945,0.000
1786901613.920,-376.465,-87.402,-425.293,325.195,0.000
1786901613.924,115.234,-182.129,-495.605,109.863,0.000
1786901613.928,400.879,-226.562,-545.898,-207.520,0.000
1786901613.932,-70.801,-132.324,-466.797,-62.012,0.000
1786901613.936,-446.289,-66.406,-401.855,289.551,0.000
1786901613.940,-69.336,-190.918,-512.695,230.469,0.000
1786901613.944,376.465,-99.609,-474.121,-165.527,0.000
1786901613.948,99.609,3.906,-418.945,-169.922,0.000
1786901613.952,-405.273,-130.859,-502.930,225.586,0.000
1786901613.956,-228.516,-162.109,-529.297,283.203,0.000
1786901613.959,312.500,-28.809,-392.578,-111.328,0.000
1786901613.963,243.652,-34.668,-375.977,-239.258,0.000
1786901613.967,-275.391,-151.367,-468.750,108.398,0.000
1786901613.971,-305.176,-217.285,-532.227,302.734,0.000
1786901613.975,195.312,-115.234,-466.797,-17.090,0.000
1786901613.979,341.797,-14.648,-378.418,-292.969,0.000
1786901613.983,-161.133,-221.680,-537.109,10.254,0.000
1786901613.987,-407.715,-246.582,-574.707,301.758,0.000
1786901613.991,48.828,23.926,-323.242,35.645,0.000
1786901613.994,416.504,-12.207,-356.934,-287.109,0.000
1786901613.999,24.902,-220.703,-468.262,-104.980,0.000
1786901614.002,-397.949,-130.859,-359.863,252.441,0.000
1786901614.006,-64.453,46.387,-275.879,170.410,0.000
1786901614.010,452.637,-59.082,-334.961,-180.664,0.000
1786901614.014,218.750,-128.418,-380.859,-176.758,0.000
1786901614.018,-323.730,-135.254,-384.766,202.148,0.000
1786901614.022,-194.824,-117.676,-348.633,301.758,0.000
1786901614.026,381.348,-87.891,-347.656,-51.758,0.000
1786901614.030,393.555,-297.852,-541.992,-170.410,0.000
1786901614.034,-184.082,-184.082,-466.309,134.766,0.000
1786901614.037,-288.086,139.160,-181.641,298.828,0.000
1786901614.041,264.648,-19.043,-328.125,56.152,0.000
1786901614.045,0.000,-115.234,-419.434,-209.961,0.000
1786901614.049,0.000,-33.691,-298.340,6.836,0.000
1786901614.053,0.000,-9.766,-247.559,326.172,0.000
1786901614.057,0.000,-114.746,-385.254,183.105,0.000
1786901614.061,0.000,-169.922,-507.812,-165.527,0.000
1786901614.065,0.000,-147.949,-445.312,-86.914,0.000
1786901614.069,0.000,-105.469,-360.352,290.527,0.000
1786901614.073,0.000,-203.613,-492.676,326.172,0.000
1786901614.077,0.000,-194.336,-526.855,-51.758,0.000
1786901614.080,0.000,17.578,-311.035,-174.316,0.000
1786901614.084,0.000,-41.016,-332.520,200.195,0.000
1786901614.088,0.000,-222.168,-461.426,378.906,0.000
1786901614.092,287.109,-135.742,-406.738,25.391,0.000
1786901614.096,326.172,27.832,-280.273,-207.520,0.000
1786901614.100,-220.215,-71.777,-346.680,123.535,0.000
1786901614.104,-389.160,-131.836,-402.832,396.484,0.000
1786901614.108,118.164,-67.383,-341.309,135.742,0.000
1786901614.112,396.973,-130.371,-416.016,-152.832,0.000
1786901614.116,-72.266,-172.852,-429.199,48.340,0.000
1786901614.120,-421.387,-288.086,-493.164,420.410,0.000
1786901614.123,-56.152,-144.043,-405.762,265.137,0.000
1786901614.127,394.043,-18.066,-374.512,-116.211,0.000
1786901614.131,98.145,-208.984,-531.738,-41.504,0.000
1786901614.135,-423.340,-110.352,-390.625,299.316,0.000
1786901614.139,-208.984,12.695,0.000,310.547,0.000
1786901614.143,350.586,-38.574,0.000,-55.176,0.000
1786901614.147,249.512,-167.969,0.000,-146.973,0.000
1786901614.151,-324.219,-163.574,0.000,205.078,0.000
1786901614.155,-325.195,-87.402,0.000,356.445,0.000
1786901614.159,238.281,-139.160,0.000,50.293,0.000
1786901614.162,353.027,-273.926,0.000,-136.230,0.000
1786901614.166,-195.801,-225.586,0.000,119.141,0.000
1786901614.170,-420.410,5.371,0.000,351.562,0.000
1786901614.174,88.867,-25.391,0.000,127.441,0.000
1786901614.178,411.621,-231.934,0.000,-158.691,0.000
1786901614.182,-40.527,-229.980,0.000,-9.766,0.000
1786901614.186,-440.918,-75.684,-370.605,309.570,0.000
1786901614.190,-68.848,-84.473,-416.992,242.188,0.000
1786901614.194,419.922,-125.488,-508.789,-138.184,0.000
1786901614.198,147.949,-92.773,-420.898,-151.855,0.000
1786901614.202,-364.746,-58.594,-368.652,232.910,0.000
1786901614.205,-202.148,-118.164,-431.641,316.406,0.000
1786901614.209,352.539,-327.637,-610.352,-2.930,0.000
1786901614.213,279.297,-245.605,-592.285,-180.176,0.000
1786901614.217,-294.434,34.668,-349.609,93.262,0.000
1786901614.221,-325.684,-51.758,-390.625,340.332,0.000
1786901614.225,201.172,-112.305,-452.637,51.758,0.000
1786901614.229,347.656,-42.969,-353.027,-229.980,0.000
1786901614.233,-147.949,-34.180,-302.734,28.320,0.000
1786901614.237,-397.949,-126.465,-390.625,353.516,0.000
1786901614.241,54.688,-163.086,-469.727,168.457,0.000
1786901614.244,422.363,-133.301,-452.148,-183.594,0.000
1786901614.248,11.230,-75.195,-372.559,-85.449,0.000
1786901614.252,-418.945,-193.359,-495.605,328.125,0.000
1786901614.256,-119.141,-205.566,-537.598,302.734,0.000
1786901614.260,374.023,-13.672,-349.121,-129.883,0.000
1786901614.264,194.336,-54.688,-396.484,-177.734,0.000
1786901614.268,-326.660,-235.352,-524.414,222.656,0.000
1786901614.272,-250.000,-201.172,-479.492,321.289,0.000
1786901614.276,293.457,-13.672,-343.750,-61.523,0.000
1786901614.280,325.195,-112.305,-435.059,-210.938,0.000
1786901614.284,-237.305,-158.691,-440.918,106.445,0.000
1786901614.287,-371.094,-58.594,-309.570,333.496,0.000
1786901614.291,155.273,-19.531,-279.297,53.223,0.000
1786901614.295,406.738,-103.027,-381.348,-233.887,0.000
1786901614.299,-72.266,-232.422,-473.145,9.277,0.000
1786901614.303,-416.992,-164.062,-393.555,325.195,0.000
1786901614.307,4.395,-63.965,-346.680,174.316,0.000
1786901614.311,419.434,-106.445,-421.875,-166.504,0.000
1786901614.315,61.035,-189.453,-486.816,-112.793,0.000
1786901614.319,-420.410,-72.754,-355.957,224.609,0.000
1786901614.322,-165.527,15.137,-294.922,226.562,0.000
1786901614.327,366.211,-127.930,-443.359,-115.723,0.000
1786901614.331,209.473,-207.031,-514.648,-199.707,0.000
1786901614.334,-359.863,-48.828,-323.242,126.465,0.000
1786901614.338,-312.988,-22.949,-282.715,296.387,0.000
1786901614.342,253.906,-166.992,-442.871,-7.812,0.000
1786901614.346,311.035,-250.000,-536.133,-220.215,0.000
1786901614.350,-254.883,-120.117,-366.699,46.875,0.000
1786901614.354,-416.504,20.508,-234.375,296.387,0.000
1786901614.358,117.676,-223.145,-478.027,111.328,0.000
1786901614.362,374.023,-333.008,-592.773,-194.824,0.000
1786901614.366,-120.117,-5.859,-277.344,-90.820,0.000
1786901614.369,-462.891,-30.762,-304.688,265.625,0.000
1786901614.374,-86.914,-148.926,-389.160,190.430,0.000
1786901614.377,368.164,-106.445,-366.699,-175.293,0.000
1786901614.381,99.609,-68.359,-336.914,-148.926,0.000
1786901614.385,-388.672,-112.793,-348.633,250.977,0.000
1786901614.389,-205.078,-155.273,-411.133,298.828,0.000
1786901614.393,310.059,-147.949,-400.391,-70.801,0.000
1786901614.397,223.145,-137.695,-396.484,-185.059,0.000
1786901614.401,-302.734,-160.645,-422.852,166.504,0.000
1786901614.405,-328.613,-193.848,-433.594,353.027,0.000
1786901614.409,195.801,-90.332,-382.812,-1.953,0.000
1786901614.412,327.637,-19.043,-348.145,-259.766,0.000
1786901614.416,-168.945,-156.250,-395.020,41.504,0.000
1786901614.420,-387.207,-212.891,-430.664,351.562,0.000
1786901614.424,62.012,-38.574,-328.125,107.422,0.000
1786901614.428,397.949,-21.973,-323.242,-225.098,0.000
1786901614.432,-17.090,-168.457,-434.570,-65.430,0.000
1786901614.436,-437.988,-174.316,-431.641,283.691,0.000
1786901614.440,-104.004,-138.184,-411.621,221.680,0.000
1786901614.444,371.094,-82.520,-380.859,-161.133,0.000
1786901614.448,145.996,-201.172,-493.652,-151.367,0.000
1786901614.451,-395.508,-311.035,-586.914,238.770,0.000
1786901614.455,-311.035,0.000,-312.988,266.113,0.000
1786901614.459,271.973,3.906,-330.078,-75.684,0.000
1786901614.463,260.254,-141.602,-435.059,-202.148,0.000
1786901614.467,-317.871,-83.008,-348.633,120.605,0.000
1786901614.471,-398.926,-7.812,-270.020,332.520,0.000
1786901614.475,149.902,-75.684,-340.820,67.383,0.000
1786901614.479,340.332,-167.480,-418.457,-194.336,0.000
1786901614.483,-159.668,-125.977,-406.250,17.090,0.000
1786901614.487,-431.641,-113.281,-404.297,341.797,0.000
1786901614.491,-8.301,-141.113,-400.391,188.965,0.000
1786901614.494,363.281,-201.660,-459.961,-154.297,0.000
1786901614.498,-22.949,-91.797,-367.676,-85.449,0.000
1786901614.502,-465.820,28.809,-276.855,279.297,0.000
1786901614.506,-164.551,-71.777,-345.215,294.922,0.000
1786901614.510,352.051,-217.773,-475.098,-62.500,0.000
1786901614.514,141.113,-98.633,-384.766,-169.922,0.000
1786901614.518,-396.973,5.371,-275.391,172.363,0.000
1786901614.522,-297.363,-103.027,-380.859,337.402,0.000
1786901614.526,264.160,-130.859,-437.012,7.812,0.000
1786901614.530,295.898,-105.957,-414.551,-209.473,0.000
1786901614.534,-266.602,-153.320,-415.039,78.125,0.000
1786901614.537,-412.109,-255.371,-503.418,354.492,0.000
1786901614.541,92.773,-289.062,-602.051,102.539,0.000
1786901614.545,326.172,-49.316,-398.926,-273.926,0.000
1786901614.549,-150.879,-50.781,-395.996,-68.848,0.000
1786901614.553,-517.578,-142.578,-424.316,314.453,0.000
1786901614.557,-130.859,-68.848,-353.027,179.688,0.000
1786901614.561,312.500,-21.973,-350.098,-207.520,0.000
1786901614.565,11.719,-102.051,-414.551,-152.832,0.000
1786901614.569,-473.633,-172.852,-440.430,233.398,0.000
1786901614.573,-262.207,-78.613,-355.469,254.395,0.000
1786901614.577,276.855,-72.754,-403.320,-113.770,0.000
1786901614.580,171.875,-206.543,-514.160,-200.684,0.000
1786901614.584,-379.883,-309.082,-564.453,174.805,0.000
1786901614.588,-392.090,-145.020,-450.684,309.570,0.000
1786901614.592,166.016,-14.160,-377.441,-26.855,0.000
1786901614.596,293.945,-169.922,-511.719,-229.980,0.000
1786901614.600,-257.812,-168.945,-488.770,31.738,0.000
1786901614.604,-467.285,-25.391,-381.348,296.387,0.000
1786901614.608,44.434,-0.488,-349.609,75.684,0.000
1786901614.612,352.539,-147.949,-469.238,-235.352,0.000
1786901614.616,-91.797,-201.172,-540.039,-85.938,0.000
1786901614.619,-484.863,-54.688,-359.375,242.676,0.000
1786901614.623,-125.977,-25.879,-342.773,156.250,0.000
1786901614.627,362.305,-255.371,-566.895,-160.645,0.000
1786901614.631,75.195,-308.594,-613.281,-141.602,0.000
1786901614.635,-480.957,-29.785,-349.121,160.645,0.000
1786901614.639,-290.039,-7.324,-333.984,238.281,0.000
1786901614.643,284.668,-186.523,-445.801,-83.984,0.000
1786901614.647,199.219,-153.320,-399.414,-245.605,0.000
1786901614.651,-350.098,-89.844,-371.582,90.332,0.000
1786901614.655,0.000,-108.398,-379.883,319.824,0.000
1786901614.659,0.000,-119.629,-425.293,16.602,0.000
1786901614.663,0.000,-85.938,-366.699,-251.465,0.000
1786901614.666,0.000,-54.688,-323.730,4.395,0.000
1786901614.670,0.000,-101.562,-365.234,326.172,0.000
1786901614.674,0.000,-191.895,-441.895,170.410,0.000
1786901614.678,0.000,-228.027,-510.742,-160.156,0.000
1786901614.682,0.000,-108.398,-390.625,-70.312,0.000
1786901614.686,0.000,-63.965,-337.402,286.621,0.000
1786901614.690,0.000,-217.773,-468.750,253.906,0.000
1786901614.694,0.000,-128.906,-413.574,-171.875,0.000
1786901614.698,0.000,-28.809,-355.469,-223.633,0.000
1786901614.701,-381.836,-132.812,-426.758,175.781,0.000
1786901614.705,156.738,-130.859,-452.148,281.738,0.000
1786901614.709,312.012,-99.121,-385.742,-72.754,0.000
1786901614.713,-190.430,-95.703,-376.465,-256.348,0.000
1786901614.717,-442.871,-138.184,-443.359,67.871,0.000
1786901614.721,2.441,-230.957,-538.574,334.473,0.000
1786901614.725,353.027,-128.418,-442.871,37.598,0.000
1786901614.729,-62.012,-16.113,-369.141,-272.461,0.000
1786901614.733,-478.516,-228.027,-545.898,8.301,0.000
1786901614.736,-150.391,-239.258,-555.176,330.566,0.000
1786901614.740,330.566,-11.230,-367.188,113.770,0.000
1786901614.744,127.930,-72.266,-444.824,-203.613,0.000
1786901614.748,70.801,-205.078,-493.164,-95.215,0.000
1786901614.752,-409.668,-145.020,-414.551,243.652,0.000
1786901614.756,-175.781,8.789,-319.824,228.027,0.000
1786901614.760,363.281,-75.195,-415.039,-106.934,0.000
1786901614.764,201.660,-163.086,-482.422,-181.152,0.000
1786901614.768,-356.445,-156.250,-429.688,181.641,0.000
1786901614.772,-291.016,-117.188,-413.574,336.426,0.000
1786901614.776,269.043,-124.512,-458.008,1.465,0.000
1786901614.779,335.938,-286.133,-578.125,-177.246,0.000
1786901614.783,-232.910,-142.578,-438.477,87.402,0.000
1786901614.787,-393.555,80.566,-268.555,318.359,0.000
1786901614.791,146.973,-83.008,-430.664,101.562,0.000
1786901614.795,0.000,-141.602,-489.258,-194.336,0.000
1786901614.799,0.000,-49.316,-356.445,-15.625,0.000
1786901614.803,0.000,-41.992,-321.777,322.266,0.000
1786901614.807,0.000,-132.324,-458.008,220.215,0.000
1786901614.811,0.000,-167.480,-530.762,-152.344,0.000
1786901614.815,0.000,-148.438,-457.031,-134.766,0.000
1786901614.819,0.000,-124.023,-403.320,233.398,0.000
1786901614.822,0.000,-211.914,-525.391,314.941,0.000
1786901614.826,0.000,-234.375,-604.004,-41.992,0.000
1786901614.830,0.000,-6.348,-383.789,-228.027,0.000
1786901614.834,0.000,-5.371,-364.258,124.512,0.000
1786901614.838,0.000,-210.938,-493.164,355.469,0.000
1786901614.842,213.379,-173.340,-493.164,5.371,0.000
1786901614.846,332.031,5.859,-379.395,-282.715,0.000
1786901614.850,-176.758,-81.543,-436.523,20.996,0.000
1786901614.854,-402.832,-111.816,-429.199,333.496,0.000
1786901614.858,52.734,-67.871,-389.648,120.605,0.000
1786901614.862,377.930,-149.414,-504.395,-194.336,0.000
1786901614.865,-25.391,-156.738,-480.957,-38.086,0.000
1786901614.869,-429.199,-280.762,-552.246,347.168,0.000
1786901614.873,-125.977,-157.227,-494.629,233.887,0.000
1786901614.877,354.492,56.152,-370.605,-180.176,0.000
1786901614.881,136.719,-119.141,-470.703,-137.695,0.000
1786901614.885,-390.137,-152.832,-465.332,231.445,0.000
1786901614.889,-256.836,-16.602,-348.145,266.113,0.000
1786901614.893,312.012,-13.184,-344.238,-95.703,0.000
1786901614.897,289.062,-172.852,-500.977,-226.074,0.000
1786901614.901,-285.645,-166.016,-473.633,105.957,0.000
1786901614.905,-366.699,-59.570,-360.352,311.035,0.000
1786901614.908,179.688,-136.230,-438.477,43.457,0.000
1786901614.912,376.953,-276.367,-602.051,-195.312,0.000
1786901614.916,-137.207,-259.277,-623.047,22.949,0.000
1786901614.920,-441.895,-14.160,-347.656,290.039,0.000
1786901614.924,20.996,7.324,-327.637,128.418,0.000
1786901614.928,432.129,-218.750,-516.113,-144.043,0.000
1786901614.932,28.809,-230.469,-532.715,-53.711,0.000
1786901614.936,-448.242,-24.902,0.000,250.977,0.000
1786901614.940,-140.137,-91.797,0.000,265.137,0.000
1786901614.944,375.488,-183.105,0.000,-90.332,0.000
1786901614.947,184.570,-108.887,0.000,-170.898,0.000
1786901614.951,-346.680,-52.246,0.000,190.430,0.000
1786901614.955,-252.930,-155.762,0.000,361.328,0.000
1786901614.959,292.480,-232.422,0.000,19.043,0.000
1786901614.963,299.316,-179.199,0.000,-222.168,0.000
1786901614.967,-253.906,-47.363,0.000,55.176,0.000
1786901614.971,-368.652,-60.059,0.000,306.641,0.000
1786901614.975,135.742,-202.148,0.000,59.570,0.000
1786901614.979,351.562,-98.145,0.000,-269.531,0.000
1786901614.983,-98.633,8.789,-355.469,-86.426,0.000
1786901614.987,-408.203,-110.352,-410.645,281.250,0.000
1786901614.991,-16.602,-132.324,-459.961,161.133,0.000
1786901614.994,388.672,-4.883,-347.656,-245.117,0.000
1786901614.998,72.754,-82.031,-366.211,-188.477,0.000
1786901615.002,-390.137,-213.379,-481.934,215.332,0.000
1786901615.006,-165.039,-179.688,-489.258,210.938,0.000
1786901615.010,355.957,-44.434,-377.441,-199.219,0.000
1786901615.014,233.887,12.695,-301.758,-295.410,0.000
1786901615.018,-278.320,-203.613,-450.684,128.418,0.000
1786901615.022,-276.367,-238.770,-497.070,304.688,0.000
1786901615.026,242.188,53.223,-208.496,-80.566,0.000
1786901615.030,0.000,-8.301,-241.699,-272.461,0.000
1786901615.034,0.000,-130.371,-323.242,35.156,0.000
1786901615.037,0.000,-66.895,-245.117,292.969,0.000
1786901615.041,0.000,5.859,-216.309,53.223,0.000
1786901615.045,0.000,-37.598,-242.676,-251.953,0.000
1786901615.049,0.000,-157.715,-315.430,-52.246,0.000
1786901615.053,0.000,-149.902,-290.039,312.500,0.000
1786901615.057,0.000,-81.543,-270.020,218.750,0.000
1786901615.061,0.000,-122.559,-363.281,-145.508,0.000
1786901615.065,0.000,-186.523,-398.438,-126.953,0.000
1786901615.069,0.000,-45.410,-239.258,215.332,0.000
1786901615.072,0.000,49.316,-197.754,276.855,0.000
1786901615.077,409.180,-92.773,-346.191,-46.875,0.000
1786901615.080,339.844,-188.965,-434.570,-153.809,0.000
1786901615.084,-235.352,-21.973,-240.723,159.180,0.000
1786901615.088,-274.414,29.785,-176.758,349.121,0.000
1786901615.092,281.250,-122.070,-374.023,79.102,0.000
1786901615.096,426.758,-221.680,-468.750,-158.691,0.000
1786901615.100,-103.027,-138.672,-339.844,68.848,0.000
1786901615.104,-347.168,23.438,-179.199,347.656,0.000
1786901615.108,144.043,-149.414,-363.770,219.727,0.000
1786901615.112,459.473,-285.156,-517.090,-106.934,0.000
1786901615.115,9.766,-51.270,-286.621,-59.570,0.000
1786901615.119,-378.418,-45.898,-287.109,322.266,0.000
1786901615.124,-49.316,-118.164,-356.934,294.434,0.000
1786901615.128,446.777,-113.281,-377.441,-89.355,0.000
1786901615.131,208.496,-72.266,-326.172,-124.023,0.000
1786901615.135,-335.938,-76.172,-301.270,257.812,0.000
1786901615.139,-208.496,-138.184,-392.090,360.840,0.000
1786901615.143,336.914,-174.316,-441.406,22.461,0.000
1786901615.147,317.871,-145.508,-401.855,-138.184,0.000
1786901615.151,-224.609,-153.320,-420.410,168.945,0.000
1786901615.155,-329.102,-180.176,-450.684,396.484,0.000
1786901615.159,169.434,-45.898,-332.031,90.820,0.000
1786901615.163,386.719,5.859,-307.617,-185.059,0.000
1786901615.166,-83.496,-163.086,-453.613,75.195,0.000
1786901615.170,-410.156,-228.027,-479.004,394.531,0.000
1786901615.174,-11.230,-94.727,-398.926,194.336,0.000
1786901615.178,400.879,4.883,-341.309,-156.738,0.000
1786901615.182,59.570,-93.262,-406.738,-48.340,0.000
1786901615.186,-412.598,-169.434,-493.164,308.105,0.000
1786901615.190,-168.457,-135.254,-466.797,291.992,0.000
1786901615.194,342.285,-122.070,-460.938,-72.266,0.000
1786901615.198,181.641,-191.406,-531.250,-132.812,0.000
1786901615.202,-372.559,-156.250,-479.492,212.891,0.000
1786901615.206,-330.078,21.973,-292.969,326.660,0.000
1786901615.209,239.258,-11.719,-349.609,3.418,0.000
1786901615.213,314.453,-256.836,-575.195,-163.086,0.000
1786901615.217,0.000,-222.656,-536.621,123.047,0.000
1786901615.221,0.000,43.457,-285.156,339.355,0.000
1786901615.225,0.000,-21.973,-387.695,109.863,0.000
1786901615.229,0.000,-209.961,-518.066,-156.250,0.000
1786901615.233,0.000,-187.988,-474.121,38.086,0.000
1786901615.237,0.000,-93.262,-444.336,349.121,0.000
1786901615.241,0.000,-111.328,-470.215,240.234,0.000
1786901615.245,0.000,-181.641,-521.484,-95.215,0.000
1786901615.249,0.000,-69.824,-400.391,-99.609,0.000
1786901615.252,0.000,38.086,-300.781,248.535,0.000
1786901615.256,0.000,-72.754,-396.484,309.570,0.000
1786901615.260,0.000,-137.695,-469.727,-41.504,0.000
1786901615.264,196.777,-68.848,-430.176,-166.504,0.000
1786901615.268,-340.332,-30.762,-387.695,159.180,0.000
1786901615.272,-328.125,-103.027,-433.594,351.074,0.000
1786901615.276,220.703,-117.188,-482.422,34.180,0.000
1786901615.280,315.430,-77.148,-452.637,-207.520,0.000
1786901615.284,-216.797,-136.230,-459.961,81.543,0.000
1786901615.288,-394.043,-235.352,-561.523,374.023,0.000
1786901615.291,57.129,-240.723,-610.840,134.766,0.000
1786901615.295,335.449,-13.184,-404.297,-265.137,0.000
1786901615.299,-60.547,14.160,-354.004,-105.469,0.000
1786901615.303,-433.594,-94.238,-358.887,271.973,0.000
1786901615.307,-94.238,-53.223,-341.309,205.078,0.000
1786901615.311,380.859,-13.672,-354.004,-164.062,0.000
1786901615.315,124.512,-106.934,-412.598,-177.734,0.000
1786901615.319,-400.391,-122.559,-394.043,186.035,0.000
1786901615.323,-256.348,-58.105,-334.473,246.582,0.000
1786901615.327,308.594,-65.430,-372.559,-90.332,0.000
1786901615.331,287.109,-168.945,-475.586,-187.988,0.000
1786901615.334,-275.391,-273.926,-536.133,153.320,0.000
1786901615.338,-365.723,-117.676,-396.973,317.383,0.000
1786901615.342,167.969,55.664,-316.895,-0.488,0.000
1786901615.346,362.793,-111.816,-466.797,-226.074,0.000
1786901615.350,-162.598,-202.148,-475.586,26.367,0.000
1786901615.354,-458.984,-23.438,-298.340,289.062,0.000
1786901615.358,0.000,43.457,-285.645,76.660,0.000
1786901615.362,0.000,-85.449,-395.508,-266.113,0.000
1786901615.366,0.000,-126.465,-406.738,-148.926,0.000
1786901615.370,0.000,-45.410,-317.383,205.078,0.000
1786901615.373,0.000,-36.621,-316.406,162.598,0.000
1786901615.377,0.000,-223.145,-532.227,-150.391,0.000
1786901615.381,0.000,-253.418,-551.270,-172.363,0.000
1786901615.385,0.000,-22.461,-308.594,127.441,0.000
1786901615.389,0.000,44.922,-223.633,234.375,0.000
1786901615.393,0.000,-185.059,-406.738,-43.945,0.000
1786901615.397,0.000,-239.746,-513.672,-208.984,0.000
1786901615.401,0.000,-3.418,-276.367,58.105,0.000
1786901615.405,-363.281,-75.195,-291.992,333.496,0.000
1786901615.409,122.559,-163.086,-367.676,91.309,0.000
1786901615.413,359.863,-97.168,-326.172,-225.098,0.000
1786901615.416,-102.539,-51.270,-304.199,-9.766,0.000
1786901615.420,-365.723,-98.633,-331.543,327.637,0.000
1786901615.424,55.664,-182.617,-412.109,204.102,0.000
1786901615.428,400.391,-189.453,-459.473,-121.582,0.000
1786901615.432,62.500,-117.188,-379.883,-93.262,0.000
1786901615.436,-414.062,-61.523,-290.527,264.160,0.000
1786901615.440,-189.941,-187.500,-398.438,294.922,0.000
1786901615.444,310.059,-105.469,-365.723,-99.121,0.000
1786901615.448,185.547,1.953,-290.039,-198.730,0.000
1786901615.452,-338.867,-129.395,-375.488,168.945,0.000
1786901615.456,-313.965,-159.668,-428.711,338.867,0.000
1786901615.460,220.703,-55.664,-319.824,-5.859,0.000
1786901615.463,305.176,-135.254,-398.926,-229.004,0.000
1786901615.467,-229.980,-222.656,-476.562,65.918,0.000
1786901615.471,-410.645,-184.570,-435.547,327.637,0.000
1786901615.475,69.824,-101.562,-372.559,63.965,0.000
1786901615.479,352.051,-7.812,-288.086,-255.859,0.000
1786901615.483,-63.477,-215.332,-455.078,-22.949,0.000
1786901615.487,-444.336,-256.348,-518.066,314.941,0.000
1786901615.491,-103.027,-7.324,-312.500,166.992,0.000
1786901615.495,377.930,-24.902,-337.891,-172.852,0.000
1786901615.499,120.605,-280.762,-540.039,-86.426,0.000
1786901615.503,-406.738,-241.211,-503.906,259.766,0.000
1786901615.506,-246.094,32.227,-250.488,262.695,0.000
1786901615.510,322.754,-45.410,-332.520,-53.223,0.000
1786901615.514,242.188,-161.621,-449.219,-152.344,0.000
1786901615.518,-320.801,-193.359,-435.059,179.199,0.000
1786901615.522,-342.773,-145.508,-409.180,358.887,0.000
1786901615.526,201.660,-100.586,-403.320,59.570,0.000
1786901615.530,355.957,-272.949,-513.672,-159.180,0.000
1786901615.534,-179.688,-164.062,-437.988,56.641,0.000
1786901615.538,-432.617,106.445,-195.801,292.480,0.000
1786901615.541,50.781,-68.359,-325.195,145.508,0.000
1786901615.546,0.000,-160.645,-434.570,-179.688,0.000
1786901615.549,0.000,-61.523,-331.543,-77.637,0.000
1786901615.553,0.000,-51.270,-320.312,277.832,0.000
1786901615.557,0.000,-137.695,-424.805,226.562,0.000
1786901615.561,0.000,-164.062,-485.352,-145.020,0.000
1786901615.565,0.000,-156.250,-455.078,-168.457,0.000
1786901615.569,0.000,-47.852,-275.879,180.664,0.000
1786901615.573,0.000,-128.418,-381.836,329.590,0.000
1786901615.577,0.000,-235.840,-566.895,2.930,0.000
1786901615.581,0.000,-91.797,-403.320,-222.168,0.000
1786901615.584,0.000,-119.141,-427.246,102.051,0.000
1786901615.588,0.000,-190.430,-443.848,347.656,0.000
1786901615.592,137.207,-125.488,-386.230,48.828,0.000
1786901615.596,341.797,-10.254,-337.891,-251.465,0.000
1786901615.600,-116.211,-60.547,-352.539,0.977,0.000
1786901615.604,-408.203,-104.980,-362.305,324.219,0.000
1786901615.608,-1.465,-83.008,-333.008,141.602,0.000
1786901615.612,382.812,-145.996,-459.961,-192.871,0.000
1786901615.616,23.926,-147.461,-421.875,-99.121,0.000
1786901615.620,-407.715,-304.688,-541.504,300.781,0.000
1786901615.624,-175.781,-229.492,-555.664,255.371,0.000
1786901615.627,298.828,95.703,-258.789,-175.781,0.000
1786901615.631,163.086,-50.293,-326.172,-202.148,0.000
1786901615.635,-372.070,-143.555,-408.203,146.484,0.000
1786901615.639,0.000,-91.797,-359.375,276.855,0.000
1786901615.643,0.000,-61.523,-326.172,-49.805,0.000
1786901615.647,0.000,-123.535,-415.039,-248.047,0.000
1786901615.651,0.000,-123.535,-403.320,50.781,0.000
1786901615.655,0.000,-45.898,-307.617,295.898,0.000
1786901615.659,0.000,-126.953,-381.348,55.176,0.000
1786901615.663,0.000,-269.043,-562.500,-196.289,0.000
1786901615.666,0.000,-241.699,-570.312,-7.812,0.000
1786901615.670,0.000,2.441,-280.273,262.695,0.000
1786901615.674,0.000,27.832,-270.020,149.414,0.000
1786901615.678,0.000,-228.027,-508.789,-139.160,0.000
1786901615.682,0.000,-270.996,-580.078,-78.125,0.000
1786901615.686,-433.105,-18.066,-351.562,230.957,0.000
1786901615.690,-198.730,-36.133,-344.238,269.531,0.000
1786901615.694,347.656,-165.039,-479.004,-72.266,0.000
1786901615.698,212.402,-170.410,-450.195,-186.523,0.000
1786901615.702,-343.750,-69.336,-365.234,143.066,0.000
1786901615.706,-331.543,-54.199,-363.281,295.410,0.000
1786901615.709,211.426,-271.484,-538.086,26.855,0.000
1786901615.713,283.691,-271.973,-573.730,-211.914,0.000
1786901615.717,-263.184,58.594,-295.410,-31.738,0.000
1786901615.721,-430.176,-29.297,-371.094,264.648,0.000
1786901615.725,44.922,-111.816,-453.613,63.965,0.000
1786901615.729,343.750,-36.621,-383.789,-269.531,0.000
1786901615.733,-73.242,-20.996,-335.449,-108.887,0.000
1786901615.737,-450.684,-103.516,-399.414,281.250,0.000
1786901615.741,-107.422,-138.672,-474.609,205.078,0.000
1786901615.745,350.098,-32.227,-373.535,-189.941,0.000
1786901615.748,112.305,-35.156,-314.453,-188.477,0.000
1786901615.752,-367.676,-204.590,-468.750,220.215,0.000
1786901615.756,-221.680,-245.605,-541.016,309.082,0.000
1786901615.760,301.758,-49.805,-363.770,-94.727,0.000
1786901615.764,260.742,0.000,-314.453,-247.559,0.000
1786901615.768,-272.949,-190.430,-438.477,126.465,0.000
1786901615.772,-332.031,-184.082,-450.684,345.215,0.000
1786901615.776,187.988,13.672,-270.996,15.137,0.000
1786901615.780,378.418,-44.922,-312.500,-236.816,0.000
1786901615.784,-127.930,-111.328,-339.355,21.484,0.000
1786901615.788,-394.043,-46.875,-254.883,308.105,0.000
1786901615.792,71.777,0.000,-227.051,123.535,0.000
1786901615.795,415.527,-85.449,-310.059,-205.078,0.000
1786901615.799,19.531,-186.035,-360.840,-71.289,0.000
1786901615.803,-412.109,-151.367,-308.105,297.363,0.000
1786901615.807,-115.234,-94.727,-288.086,260.254,0.000
1786901615.811,379.395,-113.281,-328.125,-101.074,0.000
1786901615.815,167.480,-200.195,-390.625,-136.719,0.000
1786901615.819,-368.164,-96.680,-299.316,189.941,0.000
1786901615.823,-249.023,20.020,-208.984,309.570,0.000
1786901615.827,0.000,-111.328,-333.496,3.418,0.000
1786901615.831,0.000,-162.598,-391.113,-178.711,0.000
1786901615.835,0.000,-37.109,-234.863,114.258,0.000
1786901615.838,0.000,0.977,-166.016,352.539,0.000
1786901615.842,0.000,-106.934,-288.574,104.004,0.000
1786901615.846,0.000,-226.562,-427.734,-174.805,0.000
1786901615.850,0.000,-108.398,-270.996,28.809,0.000
1786901615.854,0.000,52.734,43.457,346.680,0.000
1786901615.858,0.000,-169.434,-192.383,253.418,0.000
1786901615.862,0.000,-282.715,-498.047,-86.914,0.000
1786901615.866,0.000,9.277,-167.969,-59.570,0.000
1786901615.870,0.000,-49.316,-130.371,334.473,0.000
1786901615.874,-125.000,-172.363,-283.691,328.125,0.000
1786901615.878,368.652,-83.984,-248.535,-64.941,0.000
1786901615.881,216.797,-30.762,-200.684,-138.184,0.000
1786901615.885,-317.383,-76.660,-152.832,223.633,0.000
1786901615.889,-287.598,-115.234,-196.289,382.324,0.000
1786901615.893,238.770,-113.281,-279.785,73.242,0.000
1786901615.897,318.359,-127.930,-265.625,-118.652,0.000
1786901615.901,-213.379,-151.367,-276.855,173.828,0.000
1786901615.905,-395.996,-115.234,-258.789,414.551,0.000
1786901615.909,99.121,-22.949,-72.266,145.996,0.000
1786901615.913,388.672,6.348,57.617,-148.438,0.000
1786901615.916,-17.578,-97.656,-78.125,75.684,0.000
1786901615.921,-372.559,-189.941,-278.320,420.898,0.000
1786901615.924,-39.551,-36.621,-96.680,266.113,0.000
1786901615.928,412.109,-41.504,-37.109,-69.824,0.000
1786901615.932,114.746,-174.805,-288.086,11.719,0.000
1786901615.936,-392.578,-124.023,-205.566,360.352,0.000
1786901615.940,-183.105,-110.352,-120.117,393.066,0.000
1786901615.944,359.375,-74.707,-209.473,15.625,0.000
1786901615.948,287.109,-169.434,-329.102,-89.355,0.000
1786901615.952,-267.578,-254.395,-426.758,252.930,0.000
1786901615.956,-326.172,25.879,-49.805,367.188,0.000
1786901615.959,232.422,26.367,9.766,70.312,0.000
1786901615.963,376.953,-124.512,-209.961,-140.137,0.000
1786901615.967,-154.785,-98.633,-190.918,91.309,0.000
1786901615.971,-375.488,-4.883,-16.113,355.957,0.000
1786901615.975,93.262,-55.176,-63.477,180.664,0.000
1786901615.979,404.297,-128.418,-264.160,-134.277,0.000
1786901615.983,-8.301,-104.980,-284.180,-1.465,0.000
1786901615.987,-391.113,-125.488,-297.852,350.098,0.000
1786901615.991,-60.059,-142.578,-333.984,283.691,0.000
1786901615.995,411.621,-209.961,-397.461,-25.879,0.000
1786901615.999,152.832,-85.938,-275.879,-73.242,0.000
1786901616.002,-358.887,90.332,-20.020,232.910,0.000
1786901616.006,-184.082,-32.227,-90.332,345.215,0.000
1786901616.010,354.004,-129.883,-287.598,0.488,0.000
1786901616.014,299.316,-49.316,-281.738,-191.895,0.000
1786901616.018,-243.652,0.977,-214.844,115.723,0.000
1786901616.022,-303.711,-116.211,-322.754,343.262,0.000
1786901616.026,216.309,-146.973,-394.043,42.969,0.000
1786901616.030,383.789,-40.039,-262.695,-252.930,0.000
1786901616.034,-85.938,-79.102,-256.836,3.418,0.000
1786901616.038,-335.938,-219.727,-421.875,357.910,0.000
1786901616.042,73.730,-219.238,-465.332,189.453,0.000
1786901616.045,396.973,-25.391,-281.250,-206.055,0.000
1786901616.049,33.203,-15.137,-233.887,-120.117,0.000
1786901616.053,-377.441,-63.477,-203.613,253.906,0.000
1786901616.057,-80.078,-29.297,-90.820,247.070,0.000
